# Cross sections for O2+
# From the Leiden database for photodissociation and photoionization of astrophysically relevant molecules, http://home.strw.leidenuniv.nl/~ewine/photo/
# Converted from earlier Leiden database cross sections by Alan Heays 2016-02-24
# Photodissociation source: O2+ photodissociation based on Honjou et al. '78, plus osc str. van Hemert
# Lines represented with gaussian of width 1.0 nm FWHM
# wavelength: (nm)
# photoabsorption:    cross section (cm2)
# photodissociation:  cross section (cm2)
# This version has been resampled to a uniform 0.1nm grid while maintaining a constant integrated cross section (using trapezoidal integration).
# wavelength photoabsorption photodissociation
1.179000e+02 0.000000e+00 0.000000e+00
1.180000e+02 8.885898e-29 8.885898e-29
1.181000e+02 4.561756e-28 4.561756e-28
1.182000e+02 2.215545e-27 2.215545e-27
1.183000e+02 1.017997e-26 1.017997e-26
1.184000e+02 4.425171e-26 4.425171e-26
1.185000e+02 1.819832e-25 1.819832e-25
1.186000e+02 7.080274e-25 7.080274e-25
1.187000e+02 2.606072e-24 2.606072e-24
1.188000e+02 9.074870e-24 9.074870e-24
1.189000e+02 2.989593e-23 2.989593e-23
1.190000e+02 9.317539e-23 9.317539e-23
1.191000e+02 2.747312e-22 2.747312e-22
1.192000e+02 7.663592e-22 7.663592e-22
1.193000e+02 2.022434e-21 2.022434e-21
1.194000e+02 5.049333e-21 5.049333e-21
1.195000e+02 1.192645e-20 1.192645e-20
1.196000e+02 2.665054e-20 2.665054e-20
1.197000e+02 5.634020e-20 5.634020e-20
1.198000e+02 1.126804e-19 1.126804e-19
1.199000e+02 2.132043e-19 2.132043e-19
1.200000e+02 3.816464e-19 3.816464e-19
1.201000e+02 6.463146e-19 6.463146e-19
1.202000e+02 1.035486e-18 1.035486e-18
1.203000e+02 1.569504e-18 1.569504e-18
1.204000e+02 2.250598e-18 2.250598e-18
1.205000e+02 3.053171e-18 3.053171e-18
1.206000e+02 3.918519e-18 3.918519e-18
1.207000e+02 4.757846e-18 4.757846e-18
1.208000e+02 5.465329e-18 5.465329e-18
1.209000e+02 5.939364e-18 5.939364e-18
1.210000e+02 6.106342e-18 6.106342e-18
1.211000e+02 5.939364e-18 5.939364e-18
1.212000e+02 5.465329e-18 5.465329e-18
1.213000e+02 4.757846e-18 4.757846e-18
1.214000e+02 3.918519e-18 3.918519e-18
1.215000e+02 3.053171e-18 3.053171e-18
1.216000e+02 2.250598e-18 2.250598e-18
1.217000e+02 1.569504e-18 1.569504e-18
1.218000e+02 1.035486e-18 1.035486e-18
1.219000e+02 6.463146e-19 6.463146e-19
1.220000e+02 3.816464e-19 3.816464e-19
1.221000e+02 2.132043e-19 2.132043e-19
1.222000e+02 1.126804e-19 1.126804e-19
1.223000e+02 5.634020e-20 5.634020e-20
1.224000e+02 2.665054e-20 2.665054e-20
1.225000e+02 1.192645e-20 1.192645e-20
1.226000e+02 5.049333e-21 5.049333e-21
1.227000e+02 2.022434e-21 2.022434e-21
1.228000e+02 7.663592e-22 7.663592e-22
1.229000e+02 2.747312e-22 2.747312e-22
1.230000e+02 9.317539e-23 9.317539e-23
1.231000e+02 2.989593e-23 2.989593e-23
1.232000e+02 9.074870e-24 9.074870e-24
1.233000e+02 2.606072e-24 2.606072e-24
1.234000e+02 7.080274e-25 7.080274e-25
1.235000e+02 1.819832e-25 1.819832e-25
1.236000e+02 4.425171e-26 4.425171e-26
1.237000e+02 1.017997e-26 1.017997e-26
1.238000e+02 2.215545e-27 2.215545e-27
1.239000e+02 4.561756e-28 4.561756e-28
1.240000e+02 2.280878e-28 2.280878e-28
1.241000e+02 7.779112e-40 7.779112e-40
1.242000e+02 0.000000e+00 0.000000e+00
1.642000e+02 0.000000e+00 0.000000e+00
1.643000e+02 1.640473e-28 1.640473e-28
1.644000e+02 8.421704e-28 8.421704e-28
1.645000e+02 4.090236e-27 4.090236e-27
1.646000e+02 1.879379e-26 1.879379e-26
1.647000e+02 8.169547e-26 8.169547e-26
1.648000e+02 3.359690e-25 3.359690e-25
1.649000e+02 1.307127e-24 1.307127e-24
1.650000e+02 4.811210e-24 4.811210e-24
1.651000e+02 1.675361e-23 1.675361e-23
1.652000e+02 5.519248e-23 5.519248e-23
1.653000e+02 1.720161e-22 1.720161e-22
1.654000e+02 5.071961e-22 5.071961e-22
1.655000e+02 1.414817e-21 1.414817e-21
1.656000e+02 3.733725e-21 3.733725e-21
1.657000e+02 9.321845e-21 9.321845e-21
1.658000e+02 2.201806e-20 2.201806e-20
1.659000e+02 4.920099e-20 4.920099e-20
1.660000e+02 1.040127e-19 1.040127e-19
1.661000e+02 2.080253e-19 2.080253e-19
1.662000e+02 3.936079e-19 3.936079e-19
1.663000e+02 7.045780e-19 7.045780e-19
1.664000e+02 1.193196e-18 1.193196e-18
1.665000e+02 1.911667e-18 1.911667e-18
1.666000e+02 2.897545e-18 2.897545e-18
1.667000e+02 4.154950e-18 4.154950e-18
1.668000e+02 5.636624e-18 5.636624e-18
1.669000e+02 7.234189e-18 7.234189e-18
1.670000e+02 8.783715e-18 8.783715e-18
1.671000e+02 1.008984e-17 1.008984e-17
1.672000e+02 1.096498e-17 1.096498e-17
1.673000e+02 1.127325e-17 1.127325e-17
1.674000e+02 1.096498e-17 1.096498e-17
1.675000e+02 1.008984e-17 1.008984e-17
1.676000e+02 8.783715e-18 8.783715e-18
1.677000e+02 7.234189e-18 7.234189e-18
1.678000e+02 5.636624e-18 5.636624e-18
1.679000e+02 4.154950e-18 4.154950e-18
1.680000e+02 2.897545e-18 2.897545e-18
1.681000e+02 1.911667e-18 1.911667e-18
1.682000e+02 1.193196e-18 1.193196e-18
1.683000e+02 7.045780e-19 7.045780e-19
1.684000e+02 3.936079e-19 3.936079e-19
1.685000e+02 2.080253e-19 2.080253e-19
1.686000e+02 1.040127e-19 1.040127e-19
1.687000e+02 4.920099e-20 4.920099e-20
1.688000e+02 2.201806e-20 2.201806e-20
1.689000e+02 9.321845e-21 9.321845e-21
1.690000e+02 3.733725e-21 3.733725e-21
1.691000e+02 1.414817e-21 1.414817e-21
1.692000e+02 5.071961e-22 5.071961e-22
1.693000e+02 1.720161e-22 1.720161e-22
1.694000e+02 5.519248e-23 5.519248e-23
1.695000e+02 1.675361e-23 1.675361e-23
1.696000e+02 4.811210e-24 4.811210e-24
1.697000e+02 1.307127e-24 1.307127e-24
1.698000e+02 3.359690e-25 3.359690e-25
1.699000e+02 8.169547e-26 8.169547e-26
1.700000e+02 1.879379e-26 1.879379e-26
1.701000e+02 4.090236e-27 4.090236e-27
1.702000e+02 8.421704e-28 8.421704e-28
1.703000e+02 4.210852e-28 4.210852e-28
