# O2 cross sections - reduced to   103points
# From the Leiden database for photodissociation and photoionization of astrophysically relevant molecules, http://home.strw.leidenuniv.nl/~ewine/photo/                                                                                                                                                                                                                                                                                                                                                            
# File last modified by Alan Heays 2017-03-01                                                                                                                                                                                                                                                                                                                                                                                                                                                                       
# references: matsunaga1967, holland1993 10.1016/0301-0104(93)80148-3, ogawa1975, lu2010 10.1051/0004-6361/201013998, yoshino1992 10.1016/0032-0633(92)90056-T, yoshino1988 10.1016/0032-0633(88)90012-8,                                                                                                                                                                                                                                                                                                           
# no info on lines                                                                                                                                                                                                                                                                                                                                                                                                                                                                                                  
# wavelength: (nm)                                                                                                                                                                                                                                                                                                                                                                                                                                                                                                  
# photoabsorption   -- Photoabsorption cross section (cm2)                                                                                                                                                                                                                                                                                                                                                                                                                                                          
# photodissociation -- Photodissociation cross section (cm2)                                                                                                                                                                                                                                                                                                                                                                                                                                                        
# This version has been resampled to a uniform 0.1nm grid while maintaining a constant integrated cross section (using trapezoidal integration).                                                                                                                                                                                                                                                                                                                                                                    
# wavelength photoabsorption photodissociation                                                                                                                                                                                                                                                                                                                                                                                                                                                                      
5.210000E+01 2.476454E-17 4.360040E-19
5.990000E+01 2.905987E-17 1.645569E-20
6.900000E+01 2.168878E-17 4.422603E-19
7.220000E+01 2.569164E-17 3.354034E-18
7.540000E+01 2.098252E-17 8.086447E-18
7.860000E+01 2.277904E-17 1.267030E-17
8.180000E+01 2.383349E-17 1.556865E-17
8.500000E+01 9.225981E-18 5.134915E-18
8.820000E+01 6.683904E-18 2.784464E-18
9.140000E+01 7.393493E-18 2.364081E-18
9.460000E+01 2.188297E-17 7.291527E-18
9.780000E+01 3.589050E-18 5.141660E-19
1.010000E+02 2.161802E-18 2.934511E-19
1.042000E+02 9.711138E-19 9.711138E-19
1.074000E+02 1.893259E-18 1.893259E-18
1.106000E+02 7.068044E-19 7.068044E-19
1.138000E+02 1.637749E-18 1.637749E-18
1.170000E+02 1.879417E-19 1.879417E-19
1.202000E+02 4.151787E-18 4.151787E-18
1.234000E+02 6.295619E-19 6.295619E-19
1.266000E+02 1.746280E-19 1.746280E-19
1.298000E+02 5.568118E-19 5.568118E-19
1.330000E+02 2.340775E-18 2.340775E-18
1.362000E+02 8.475594E-18 8.475594E-18
1.394000E+02 1.506878E-17 1.506878E-17
1.426000E+02 1.547895E-17 1.547895E-17
1.458000E+02 1.474624E-17 1.474624E-17
1.490000E+02 1.308378E-17 1.308378E-17
1.522000E+02 1.074878E-17 1.074878E-17
1.554000E+02 8.272614E-18 8.272614E-18
1.586000E+02 6.013863E-18 6.013863E-18
1.618000E+02 4.079931E-18 4.079931E-18
1.650000E+02 2.706267E-18 2.706267E-18
1.682000E+02 1.663758E-18 1.663758E-18
1.714000E+02 1.025007E-18 1.025007E-18
1.746000E+02 5.379655E-19 5.379655E-19
1.778000E+02 1.324984E-19 1.324984E-19
1.810000E+02 3.680674E-20 3.680674E-20
1.842000E+02 4.339463E-21 4.339463E-21
1.874000E+02 1.799093E-21 1.799093E-21
1.906000E+02 2.975580E-21 2.975580E-21
1.938000E+02 5.789638E-23 5.789638E-23
1.970000E+02 1.049862E-23 1.049862E-23
2.002000E+02 1.680544E-23 1.680544E-23
2.034000E+02 7.496928E-23 7.496928E-23
2.066000E+02 7.707599E-23 7.707599E-23
2.098000E+02 1.268972E-22 1.268972E-22
2.130000E+02 1.293105E-22 1.293105E-22
2.162000E+02 1.533550E-22 1.533550E-22
2.194000E+02 1.429296E-22 1.429296E-22
2.226000E+02 1.624373E-22 1.624373E-22
2.258000E+02 1.054626E-22 1.054626E-22
2.290000E+02 9.421556E-23 9.421556E-23
2.322000E+02 6.986158E-23 6.986158E-23
2.354000E+02 4.799167E-24 4.799167E-24
2.386000E+02 4.033524E-24 4.033524E-24
2.418000E+02 3.332454E-24 3.332454E-24
2.450000E+02 2.709344E-24 2.709344E-24
2.482000E+02 2.067265E-24 2.067265E-24
2.514000E+02 1.742072E-24 1.742072E-24
2.546000E+02 1.509367E-24 1.509367E-24
2.578000E+02 1.288073E-24 1.288073E-24
2.610000E+02 1.175456E-24 1.175456E-24
2.642000E+02 1.241170E-24 1.241170E-24
2.674000E+02 9.635666E-25 9.635666E-25
2.706000E+02 7.938776E-25 7.938776E-25
2.738000E+02 7.233443E-25 7.233443E-25
2.770000E+02 6.181144E-25 6.181144E-25
2.802000E+02 5.346826E-25 5.346826E-25
2.834000E+02 4.678594E-25 4.678594E-25
2.866000E+02 4.121603E-25 4.121603E-25
2.898000E+02 3.771249E-25 3.771249E-25
2.930000E+02 3.348439E-25 3.348439E-25
2.962000E+02 3.165403E-25 3.165403E-25
2.994000E+02 2.987869E-25 2.987869E-25
3.026000E+02 2.984929E-25 2.984929E-25
3.058000E+02 2.915352E-25 2.915352E-25
3.090000E+02 3.578191E-25 3.578191E-25
3.122000E+02 3.374028E-25 3.374028E-25
3.154000E+02 2.497940E-25 2.497940E-25
3.186000E+02 2.608353E-25 2.608353E-25
3.218000E+02 2.586146E-25 2.586146E-25
3.250000E+02 2.339464E-25 2.339464E-25
3.282000E+02 2.342545E-25 2.342545E-25
3.314000E+02 2.248889E-25 2.248889E-25
3.346000E+02 2.500552E-25 2.500552E-25
3.378000E+02 2.333315E-25 2.333315E-25
3.410000E+02 1.985142E-25 1.985142E-25
3.442000E+02 2.092165E-25 2.092165E-25
3.474000E+02 1.820616E-25 1.820616E-25
3.506000E+02 1.488063E-25 1.488063E-25
3.538000E+02 1.442817E-25 1.442817E-25
3.570000E+02 1.332511E-25 1.332511E-25
3.602000E+02 1.516506E-25 1.516506E-25
3.634000E+02 1.325275E-25 1.325275E-25
3.666000E+02 1.054482E-25 1.054482E-25
3.698000E+02 6.673040E-26 6.673040E-26
3.730000E+02 6.067292E-26 6.067292E-26
3.762000E+02 8.671272E-26 8.671272E-26
3.794000E+02 3.091900E-26 3.091900E-26
3.826000E+02 4.968363E-26 4.968363E-26
3.858000E+02 4.653219E-26 4.653219E-26
3.890000E+02 1.053269E-26 1.053269E-26
